Dataset	ScanNumber	Collision Mode	ParentIonMZ	BasePeakIntensity	BasePeakMZ	ReporterIonIntensityMax	Ion_126.128	Ion_127.125	Ion_127.131	Ion_128.128	Ion_128.134	Ion_129.131	Ion_129.138	Ion_130.135	Ion_130.141	Ion_131.138	Weighted Avg Pct Intensity Correction
0	21001		600.37	6222745	230.1699	1900061.13	1779861.13	1678333.88	1395909.5	1646482.5	1735021.25	1900061.13	1725886.5	1729740.88	1729857.5	1871203	3.3
0	21002		595.99	528381.19	129.1378	522534.03	471670.41	451116.69	445034.94	431591.13	500162.41	479860.97	522534.03	488355.94	511246.75	516620.5	3.1
0	21003		685.66	1405710.25	262.1507	622749.75	571065.88	582258.63	469455.5	550177.06	616550.88	577920.88	596711.38	577972.13	593390.94	622749.75	3.3
0	21004		875.94	486356.09	230.17	314901.56	296206.16	287400.88	271908.06	291303.09	313494.41	279488.53	296330.13	299289.22	303806.13	314901.56	3.2
0	21005		738.88	719312.5	127.1309	753139.88	200621.75	257679.48	753139.88	421267.19	210099.27	309694.78	200480.36	189561.73	172532.09	181188.83	4.4
0	21007		711.01	4694603.5	756.408	526865.63	452735.59	423119.22	421633.59	387987.97	361958.88	406815.63	526865.63	441948.09	400199.09	442500.09	3.2
0	21008		568.0	2907040.5	230.1699	2067495.13	1759454.5	1784622.25	1413936.13	1806120.63	1812025.13	1864937	1886261.5	1939979.88	1955776.63	2067495.13	3.2
0	21009		702.82	754864.19	616.8162	468999.75	448916.59	424494.63	369071.63	417137.78	460222.09	463531.88	468999.75	444025.75	434623.06	454363.28	3.1
0	21010		878.97	411246.25	878.9732	254315.13	226672.2	246479.38	209504.47	230102.63	243596.22	239957.78	253006.56	254315.13	240544.33	239716.23	3.1
0	21013		1066.51	1272383	175.1187	723460.88	655461.44	701229.44	634280.5	684545.63	705108	721303.19	721440.75	705182.38	702711.06	723460.88	3.1
0	21014		511.93	29045660	110.0715	2500266	2222100	2264733.25	1938755.63	2196843.5	2407495.25	2162430.75	2273781.5	2380382.75	2271405	2500266	3.2
0	21015		427.29	1108703.75	129.1376	1119174.88	1119174.88	1018975.19	861816	955225.31	1054672.13	1041369.19	1095609.38	1089433.5	1090218.75	1099345	3.3
0	21016		621.32	628973.5	110.0716	269639.94	244674	247885.69	204051.69	223590.72	244247.05	269639.94	244592.39	244342.69	254848.84	266478.47	3.4
0	21017		754.85	619822	264.134	149448.08	119930.92	141154.95	134463.13	131073.14	134277.63	142413.89	124347.78	149448.08	127424.44	127360.02	3.0
0	21018		691.66	721253.25	262.1508	346842.75	326643.78	325936.19	297241.84	302123.72	323928.53	315482.25	343284.38	319617.63	334688.94	346842.75	3.3
0	21019		558.83	542218	130.1411	566857.75	302735.66	285564.09	304811.19	280564.81	308058.69	297253.09	297043.41	298532.53	566857.75	302545.91	3.7
0	21021		516.78	2408831	404.2339	847439.56	782348.44	756546.88	685190.56	685559.75	778185.44	818176.63	818115.31	791871.56	774023	847439.56	3.2
0	21022		471.76	567117.81	358.2285	372164.97	344746.97	344423.81	319154.63	345470.13	358670.84	372164.97	363087.44	368369.34	371016.97	365525.25	3.1
0	21023		533.32	796746.13	130.141	818507.63	759970.63	716112.56	693586.06	709170.75	730324.06	747172.31	750234.06	740238	818507.63	783565.25	3.3
0	21024		438.72	672441.5	376.2754	316747.5	190112.5	216628.06	316747.5	224664.61	217085.8	243479.91	232797.73	216012.17	217726.38	234518.36	3.2
0	21025		629.36	697444.63	131.1381	719768.63	600521.75	630574.13	545338.06	587450.44	633807.94	670616.94	682553.13	664115.81	652930.19	719768.63	3.1
0	21028		744.93	922811.69	230.17	652059.75	620148.31	611066.63	621890.63	594244.25	621049.19	646094.63	638831.94	612775	604735.81	652059.75	3.1
0	21029		444.28	793029.19	230.17	597842.56	510264.94	495309.28	417393.38	518080	558236.81	543030.13	558551.13	586690.5	533767.88	597842.56	3.0
0	21030		599.38	3805471.25	175.1188	1562884.25	1494034.75	1453814.38	1247811.13	1420103.5	1522257.13	1536577.38	1562884.25	1503183.63	1505908.13	1446798.75	3.1
0	21031		713.4	893582.81	230.17	415789.56	378414.69	382329.41	381377.59	391784.44	389789	392988.13	395305.22	403705.97	415789.56	379972.59	3.1
0	21032		879.48	311869.94	878.9735	221270.27	197193.86	202346.05	183512.56	196461.28	209366.63	203910.56	206060.98	219916	201219.58	221270.27	3.1
0	21034		611.83	616352.06	127.1312	635537.94	274552.66	348634.88	635537.94	386865.56	304493.25	367268.09	308743.47	328385.09	313120.63	339583.44	3.7
0	21035		667.86	647860.63	196.0715	562558.5	226718.39	259738.52	562558.5	297640.84	227200.88	295117.22	244253.88	221009.36	213979.91	251883.86	3.9
0	21036		739.36	565463.38	127.1311	580403.88	285730.34	298364.38	580403.88	419966.56	282457.28	316185.69	265763.38	256899.58	242172.47	258066.31	3.6
0	21038		414.51	27660780	414.5141	10917521	8145944.5	9149136	7893493.5	8302329.5	9367891	9390015	8772070	9446041	9837394	10917521	3.3
0	21039		524.06	3777100.25	500.8311	1420240.63	1371295.5	1271384.75	1015366	1114848	1385956.75	1388539.75	1291354.88	1256725.75	1420240.63	1375878.25	3.5
0	21040		467.26	542872.19	230.17	290417.38	285658.03	271127.97	266590.63	278899.59	290417.38	273027.13	288566.16	279190.94	279890.94	283752.78	3.1
0	21041		791.36	281113.63	110.0715	191744.72	169975.8	184454.78	160058.69	172032.95	191495.66	191744.72	184141.06	187472.16	189531.2	187401.42	3.1
0	21042		577.97	351944.97	127.1311	348596.34	310519.09	313941.31	348596.34	333392.25	335416.03	339825.41	320624.03	333138.94	327047.03	334683.66	3.0
0	21043		731.92	218759.44	131.1381	226748.92	184353.44	179756.58	190665.38	201510.64	180833.83	202223.95	188506.44	184684.58	196786.41	226748.92	3.2
0	21045		552.35	7703452.5	552.3502	4075066.5	3259532	3588377	3002863	3392419.25	3701298.25	3752226	3763636	3858245.25	3928146.5	4075066.5	3.1
0	21046		642.13	1961543.5	136.0756	418295.53	311474.94	327075.22	244621.56	313345.03	366680.69	350536.38	332455.09	362590.91	356632.38	418295.53	3.3
0	21048		434.93	1756819.88	175.1189	956121.81	846056.75	773405.69	811932.94	754835.94	837890.88	829881.13	907901.13	860951.19	916334.25	956121.81	3.2
0	21049		700.38	866582.56	230.1699	710584.44	674912.75	646230.38	629696.69	623330.81	691410.31	654809.19	710584.44	691319.75	663247.31	658900.25	3.1
0	21050		594.96	788697.56	129.1378	787820.81	685426.63	723279.69	598879.75	662671.94	680273.06	734359.31	784269.94	701822.75	741226.44	787820.81	3.2
0	21052		675.67	23471060	262.1506	5417616.5	4799167	4753273	3717404.75	4333743	4969619.5	4991136	4653339.5	4917560	5417616.5	5051361.5	3.4
0	21053		406.83	4150811.25	213.6365	428750.81	361501.38	385566.97	307614.78	363073.84	428750.81	411523.94	393359.97	419188.97	416445.75	428376.06	3.2
0	21055		432.25	1640805.38	358.2285	939573.5	857783.13	834593.44	871645.75	917475.56	934956.25	890561.81	938170.5	897180.63	899146.13	939573.5	3.0
0	21056		667.36	686153.94	196.0716	562439.88	293870.03	306182.22	562439.88	351374.78	294696.34	331946.31	294674.94	258913.11	265751.66	284763.75	3.6
0	21057		516.92	2326828.5	110.0716	1076121.75	871192.06	911031.13	778238.94	859208.25	935628.44	912584.25	970742.06	899355.88	925025.25	1076121.75	3.3
0	21058		496.96	1914537	376.2754	567030.5	480911.47	477070.22	422867.91	469744.63	485243.34	484363.72	518096.16	532685	519538.66	567030.5	3.2
0	21059		724.43	477082.97	724.4293	299054.09	265096.16	270999.5	299054.09	256229.8	262111.72	261912.39	278691.19	249993.23	253043.77	265670.41	3.1
0	21060		823.41	261117.59	586.2291	109337.74	107424	94019.47	74144.87	100918.45	105967.48	95097.87	104116.85	104191.59	109337.74	108759.77	3.3
0	21061		913.04	296855.19	913.041	209151.92	199877.2	185990.89	147643.47	194538.78	202714.44	175352.98	191086.58	180092.05	209151.92	190154.63	3.4
0	21062		914.04	330632.69	230.17	277245.63	234043.36	256808.84	213547.36	236266.45	249795.8	257160.14	261347.08	277245.63	265638.06	254209.14	3.1
0	21064		459.3	20565784	175.1189	12287139	10576325	10450184	9859600	10547626	10653273	12063882	11254609	12287139	11262272	11859098	3.0
0	21065		1070.98	1122289.13	138.0549	24631.52	15525.01	17130.97	18755.95	12559.46	24174.27	24631.52	22481.7	13235.33	16353.02	22455.67	3.8
0	21066		494.82	2023350	230.1699	1672320.5	1672320.5	1575365.25	1595514.38	1517267.88	1500996.5	1552447.63	1631008.88	1534053.38	1430397.38	1427206.63	3.1
0	21067		517.8	1208817.25	110.0716	811513.81	665657.94	659025.94	615700.31	602466	665647.25	693048.94	715346.88	632497.75	675116.81	811513.81	3.3
0	21069		530.67	10241120	131.1381	10577174	8329392	8928550	6091924.5	7972332.5	9166626	9693854	8925454	9554289	9728952	10577174	3.3
0	21070		538.81	5689878.5	538.8059	3171881.5	2716201.25	2840529.5	2517424.5	2676080.25	2800201.25	3171881.5	2648481.75	2833667	3025292	2841740.25	3.3
0	21071		457.97	16112210	475.3439	11726927	11089844	11093888	8526714	10202499	11008426	11041433	10576301	11210666	10132676	11726927	3.3
0	21072		588.37	8190816	588.3732	7098791	6892725.5	6655515	5910508	6880117	6609340.5	6680652.5	7091834.5	7098791	6624607	6998121.5	3.1
0	21073		828.52	780989.38	828.0213	166544.2	155893.88	136241.17	139909.98	141408.56	151763.78	162120.66	135086.84	140463.53	166544.2	157948.98	3.4
0	21074		1033.97	2661157	138.0549	44842.01	39172.5	37784.96	29472.15	34923.77	39403.14	37765.9	39584.05	38258.09	44842.01	41878.18	3.5
0	21075		562.65	270414.91	230.1701	220526.31	178744.58	179179.58	202582.64	206322.41	186008.19	191904.23	200661.25	192709.8	220526.31	197907	3.0
0	21076		667.9	672754.63	196.0716	628306.13	338355.13	378417.38	628306.13	382716.03	352686.97	399510.81	364218.56	346637.88	340873.75	370904.16	3.5
0	21077		616.4	550498.06	230.1701	524208.59	524208.59	494247.34	399105.19	440025.53	489431.94	520284.47	482928.47	487714	505189.28	505225.44	3.4
0	21078		728.68	223936.39	230.1701	189612.94	168064.09	163953.97	189612.94	165737.59	162023.75	175361.41	171252.22	182056.48	186569.88	187724.53	3.1
0	21080		770.63	328207.06	230.17	331720.34	322685.94	282698.84	280116.22	275026.59	299549.34	325416.66	287041.09	294099.53	320066.41	331720.34	3.4
0	21082		686.46	2234070.25	686.4578	1166224.88	1166224.88	1084384	824618.94	998587.13	1084237.25	1104943.38	1110946.13	1118775.25	1078941.63	1130281.5	3.3
0	21083		651.9	504826.22	651.8958	393581.31	272758.53	303632.16	393581.31	271691.5	288715.28	316645.41	286476.41	280894.81	292833.03	288329.81	3.3
0	21084		533.97	7075793	110.0715	3274300.5	3170313	2984062.5	2453007.25	2866640.5	3002122.75	3033396.25	3081202	3003044.25	2958295	3274300.5	3.3
0	21085		796.15	678437	795.5038	246364.7	236473.92	207423.36	155266.52	212029.19	246364.7	209394.25	223495.98	184630.42	229894.05	198811	3.4
0	21086		710.36	402244.03	874.4196	223859.44	181110.95	186065.09	185019.09	188349.27	204205.34	199896	206982.47	197887.61	223859.44	199451.73	3.1
0	21087		448.25	399957	230.1701	322510.59	309701.25	298329.44	320405.69	282092.94	322293.44	320792.16	322510.59	315334.84	319944.16	319969.59	3.1
0	21088		703.05	535092.5	616.8165	339815.84	319437.84	314082.13	247821.77	289423.16	329867.16	315928.19	314642.66	311000.78	339347.97	339815.84	3.4
0	21089		634.35	598716.75	230.17	396229.44	343275.84	356564.78	337284.09	352816.5	374182.69	368046.22	381189	368540.25	350505.75	396229.44	3.1
0	21091		476.82	8707044	476.8148	8188765	7222995.5	7516920.5	5982365	6877740.5	7525454.5	7700461.5	7650777	7542636.5	7418886.5	8188765	3.3
0	21092		747.37	273792.16	693.3069	179169.53	144090.63	158756.73	151964	141303.33	149909.48	170212.64	179169.53	160344.34	155651.84	167553.81	3.0
0	21094		483.96	13472399	230.17	10795552	9682710	9550459	9769681	10280169	10141201	9936622	10795552	10348003	9603998	10029142	2.9
0	21095		550.29	2529473	359.7239	1334819.88	1333407.13	1180383	788387.06	1049467.38	1289087.25	1187339.75	1205613.25	1202474.38	1334819.88	1239758.38	3.6
0	21096		497.29	1278676.38	230.1701	982128	868217.31	856706.13	758054.25	793039.13	896415.25	910920.06	938246.38	896322.06	906564.94	982128	3.2
0	21097		681.35	1090714.88	128.1344	1081467.88	1047401.75	1004455.06	881430.75	952428.88	1074149.88	1026886.31	1070392.63	1016634.38	1035202	1081467.88	3.2
0	21098		479.59	464285.84	110.0716	391632.84	310429.88	308460.97	391632.84	344997.31	306672.38	356292.75	340692.38	341657.91	332371.63	343366.31	2.9
0	21099		656.71	957834.81	131.1381	1001896.5	530560.13	590092.13	949311.38	655314.19	584511.88	651531.06	628230.5	591421.13	573243.25	1001896.5	3.7
0	21100		898.43	446892.41	906.4178	73808.51	60841.43	61249.58	59094.34	59151.76	73559.34	65186.12	63244.78	66498.76	65014.24	73808.51	3.2
0	21101		1377.95	1881105.13	138.0549	22748.67	17863.7	20157	13829.82	19755.24	19567.18	17764.28	19448.81	20117.54	18480.59	22748.67	3.3
0	21102		664.6	242765.61	230.1701	201357.56	179051.77	176986.2	170570.14	186358.06	171565.52	176097.44	190491.45	177144.84	169663.78	201357.56	3.2
0	21104		490.03	2403654.75	230.1701	718204.81	688790.06	714598.56	581200.13	669399.31	670275.5	684721.63	707166.19	714992.5	718204.81	709133.44	3.3
0	21105		735.78	77517.22	230.1701	54084.72	43667.46	50893.87	54084.72	51952.69	52711.98	47777.16	45904.32	45369.86	45985.98	47573.05	3.1
0	21106		568.13	574816.81	433.7559	484274.03	413940	452423.19	282442.63	398181.22	474581.19	427124.63	441437.22	448903.19	468005.84	484274.03	3.4
0	21107		794.42	244379.47	795.5035	74937.79	62669.01	65207.29	74937.79	68948.85	71685.87	72093.55	65645.37	70026.13	73231.7	73923.59	3.1
0	21108		897.93	531120.56	906.4182	64407.6	60413.94	61349.8	59624.71	59154.22	64407.6	62976.38	63024.27	55949.16	62430.97	58800.14	3.2
0	21109		770.38	193057.31	230.1702	190772.84	160335.91	159700.91	153809.89	175539.45	170381.13	167712.23	172790.94	163072.03	170440.45	190772.84	3.2
0	21110		659.68	532161.06	136.0757	315357.13	155770.5	176147.25	315357.13	209741.86	163849.63	204641.33	159231.3	158640.8	139419.56	158951.05	3.5
0	21112		513.81	1626991	230.17	1090243.88	910966.44	899171.31	991258	914001.44	894399.56	998228.13	983125.44	1045515.69	971190.56	1090243.88	3.0
0	21113		624.33	568123.13	624.334	509356.25	448588.09	446828.47	509356.25	443681.72	470524.88	478910.28	456140.81	447443.06	465393.25	506435.13	3.2
0	21115		461.3	1166683.13	230.17	891179.63	788650.69	705493.63	722191	790074.56	811032.06	829238.88	784506.75	752679.25	770053.25	891179.63	3.2
0	21116		572.65	461090.91	136.0757	420790.97	245091.11	237828.59	420790.97	309251.78	241093.09	296356.28	256831.11	230966.31	256168.45	281331.34	3.4
0	21117		602.31	2946488	602.8388	795044.75	683699	715566.44	668382.5	627321.13	744090.94	763508.56	726770.94	727837.56	795044.75	726229.88	3.2
0	21118		427.28	1006837.94	131.1381	1038737	915733.88	948925.06	683311.13	844729.25	951151.88	934988.25	974227.94	966572.69	988195.19	1038737	3.3
0	21119		687.61	4154284.25	686.9591	854368.06	831220.63	733119.81	534966.81	697969.19	802784	761910.44	776656.31	772837.31	854368.06	806527	3.5
0	21120		970.79	738845.38	126.055	127439.25	107812.98	109116.32	91735.2	100800.11	121586.18	97944.73	127439.25	117698.24	116826.78	119870.06	3.1
0	21122		590.86	2239791.25	131.1382	2309899	2242993.25	1951907.75	1671037.88	2105715.5	2139218.25	2136695	2116460.25	2170655.5	2190445.5	2309899	3.3
0	21123		690.07	559122.19	230.1701	497789.81	450814.06	461309.84	394786.69	417479.19	431699.31	493721.69	482855.72	494319.53	484153.66	497789.81	3.2
0	21125		419.24	386637.53	175.1189	196625.7	184489.98	185930.95	149426.81	167108.59	186364.66	169556.69	183324.94	191184.36	182357.08	196625.7	3.3
0	21126		403.63	18917344	213.6365	1951390.13	1457338	1568912.75	1178486	1619262.88	1788072	1820296.75	1790323.63	1822867.38	1951390.13	1689249.75	3.0
0	21127		637.32	2991730.25	110.0715	656976.31	606947.75	530376.13	410172.31	553529.38	656976.31	576023.69	537829.25	414917.34	596624.19	498864.88	3.6
0	21128		541.69	308027.63	359.724	197929.22	163070.69	162699.31	154326.22	129122.83	159315.83	159410.95	197929.22	183160.34	177910.92	169539.86	3.0
0	21129		728.1	583858.25	126.0551	210900.78	188133.25	179517.34	187214.13	176687.16	188304.17	210900.78	205742.05	189418.36	195976.7	200884.84	3.1
0	21130		858.48	541941.25	230.1701	382730.19	334146.34	353936.41	272695	320013.91	337880	323758.94	382730.19	359809.5	332410.56	359319.34	3.1
0	21131		664.85	220768.08	230.1701	172366.97	139439.95	151721.14	139883.53	149655.17	162765.97	140034.5	164612.7	163820.14	153206.31	172366.97	3.0
0	21132		454.27	535554.44	457.2971	246215.05	213481.16	220823.44	193122.41	246215.05	214334.03	240785.09	206913.55	235406.59	210987.91	244516.11	3.2
0	21134		672.05	841951.44	672.3799	543274.44	440865.38	466986.38	409268.09	421710.72	501202.28	492119.19	489766.94	444223.03	543274.44	540420.31	3.4
0	21135		985.15	306112.66	1252.5859	240712.94	221622	204164.8	168494.16	199687.22	240712.94	229828.84	223643.86	199058.92	218508.86	186532.39	3.2
0	21136		681.72	3697498.5	129.1377	3658756	3637711.75	3312095.5	2380160.75	2997015.5	3491108.25	3261578.75	3658756	3584053.25	3523244.75	3272182	3.2
0	21137		654.39	796019.13	129.1377	790635.88	759143.5	700354.44	658445.19	665382.19	711976.81	720168.69	790635.88	716762.81	732911.38	778880.38	3.2
0	21138		448.77	501803.75	230.1699	463898.69	429180.25	437134.63	374995.38	411287.41	451720.22	451996.16	440266.16	448262.69	463898.69	453186.28	3.2
0	21139		490.3	1766312.75	230.17	865200.25	812032	823301.56	695158.69	767642.38	831409.44	834100.94	798308.75	847067.13	823006.19	865200.25	3.3
0	21140		641.67	902227.5	110.0715	311825	302041.72	287139.69	209678.88	280233.75	293045.5	277686.84	285205.13	285452.38	311825	304088.56	3.5
0	21142		504.54	6015859	175.1188	4632229	3623673	3894559.75	3108300	3849355	4002000.5	3895136.25	3922624	4008684.25	4239689.5	4632229	3.3
0	21143		410.23	1616266.75	213.6366	243061.48	226736.83	204471.36	172562.14	200593.69	221649.5	243061.48	214126.13	216349.56	233628.28	229356	3.4
0	21145		500.77	1674275.75	110.0714	755297.38	376947.16	402308.44	755297.38	468615.38	407321.72	452910.28	393225	377001.94	372074.41	416963.94	3.6
0	21146		442.6	453587.16	521.2919	342149.84	304367.81	292558.63	271420.03	286078.94	288747.25	294435.78	335541.38	322559.59	342149.84	312228.88	3.1
0	21147		762.93	741573.75	230.1699	546956.88	522113.5	493782.94	442414.94	499271.5	524391.19	502736.25	535653.25	546956.88	517590.91	546417.06	3.1
0	21148		802.41	111154.63	435.2371	86622.59	72100.2	71178.47	79992.34	73319.17	75676.81	86622.59	85630.15	81413.54	73888.22	77487.41	2.8
0	21149		487.95	499113.59	128.1282	496303.31	315058	318822.56	288187.22	496303.31	355278.59	451984.69	365405.94	378321.22	362390.19	484913.94	2.9
0	21150		746.7	773157.44	745.936	354747.56	260776.58	287445.41	273116.38	270705.47	313415.38	299377.44	319363.25	297304.97	327554.03	354747.56	3.2
0	21151		445.6	290897.78	230.17	206555.64	188702.95	182204.45	168536.63	173809.77	186545.17	177286.27	206555.64	204073.69	202911.25	198806.47	3.1
0	21152		580.38	396605.31	230.17	330730.22	269206.81	265860.94	304672.78	306696.5	292323.66	308692.41	290526.06	287074.84	287257.75	330730.22	3.0
0	21153		830.9	739001.13	131.1382	785731.69	149498.91	156241.3	263076.88	188085.28	135122.64	183752.55	206725.94	151628.61	120101.89	785731.69	5.3
0	21154		604.67	616365.5	230.17	467098.63	424296.09	450516.38	457764.31	428290.94	433851.78	420364.44	467098.63	406495.25	433957.22	420396.34	3.1
0	21156		483.29	40832832	230.1699	31783438	27893998	29487582	25805014	26194024	29391660	27002852	29451584	31642516	29048832	31783438	3.2
0	21157		416.26	8627698	358.2285	4804916.5	4591450.5	4075370.75	3555714	4207546.5	4476142	4416970	4186258.75	4521308	4433201	4804916.5	3.3
0	21159		424.25	518698.81	358.2286	447967.19	373509.53	401350.06	374363.59	362550.91	404757.63	402645.53	403768.22	412725.59	413509.16	447967.19	3.2
0	21160		524.83	1083332.63	230.1701	844907.13	717804.63	687121.38	593881.44	646336.13	699055.44	757186.75	754345.75	740336.44	844907.13	767185.44	3.3
0	21161		498.3	2957989	230.17	2369934.25	2052629.38	2129450	1660068.63	1909883.63	2197180.25	2141893.25	2134791.5	2151204	2078842.5	2369934.25	3.3
0	21162		508.62	827131	836.3985	616041.06	551795.19	552437.13	480260.97	560526.63	580929.38	588976.88	608692.75	581087.31	603322.56	616041.06	3.1
0	21163		451.77	438345.53	175.1189	327506.47	311709.72	303886.44	279061.88	294970	322620.84	316971.09	298409.31	306979.69	327506.47	325654.63	3.3
0	21164		591.49	3011974.5	590.8575	975282.25	934176.25	878833.56	724015.19	917781.44	975282.25	886434.63	919909	828681.06	933012.94	883184.75	3.3
0	21165		511.29	4908697.5	136.0756	1485599.25	1485599.25	1334729.5	856674.81	1293354.38	1363533	1241008.5	1476351.5	1406855.38	1478744.25	1350703.75	3.4
0	21166		629.83	407158.94	248.1806	318637.59	292121	268438.28	229362.06	278427.88	313760.28	301185.66	298465.44	316999.66	316755.44	318637.59	3.1
0	21167		439.59	395082.5	230.1701	322062.28	287600.09	286546.31	262221.91	300934.97	299507.22	299487.41	314705.91	297051.59	291308.19	322062.28	3.1
0	21169		421.77	28652748	272.1714	2958637	2641490.75	2523302	2332770.75	2395256.5	2815428.25	2459945.25	2543738.25	2613407	2555122.25	2958637	3.3
0	21170		584.3	1584327.63	230.17	1082169.25	816226.69	869595.19	691353.25	844328.25	955633.25	917797.44	937161	873584.56	887722.31	1082169.25	3.2
0	21171		631.4	480339.88	631.3978	405490.69	317729.69	325045.19	405490.69	365534.44	344031.84	344363.41	347271	343085.19	309961.75	348492.97	2.8
0	21172		675.71	9166385	262.1507	5053079.5	4839014.5	4771657	3533067.5	4652548.5	4832906.5	4991170.5	4865939	4967578	4896840	5053079.5	3.3
0	21173		985.48	743267.13	1252.5854	590605.38	565104.44	466566.75	361759.91	522056.19	590605.38	515614.81	504108.97	438261.38	553439.13	512936.41	3.5
0	21174		785.19	2630984.75	623.1375	696745.81	640065.38	629890.81	440480.88	572593	649248.69	620710.75	692810.56	676214.56	612680.75	696745.81	3.2
0	21175		664.35	306948.69	230.1701	296417.28	249539.75	252526.81	207402.72	243149.73	275984.09	252878.55	296417.28	254801.91	283043.06	278245.72	3.2
0	21176		1021.58	569715.88	544.2927	473223.88	473223.88	435761.16	227580.91	375500.41	429597.38	390552	448062.31	439879.66	433820.16	375179.84	3.5
0	21177		756.72	327914.16	592.296	149612.7	133971.88	134332.98	125543.8	124300.99	134434.38	149612.7	145439.75	139261.44	130701.54	145795.84	3.1
0	21179		647.08	1956705.88	159.0916	362259.94	316493.44	303719.78	297172.06	329662.03	348221.56	345365.63	347835.44	309119.91	339220.75	362259.94	3.1
0	21180		609.03	7413478.5	129.1315	7430737	6309751.5	6635255	4713482	5832606	7013015.5	7430737	6772792	7196949	6824558.5	7085212.5	3.2
0	21182		524.77	744054.63	230.1702	551009	481498.03	448024.75	366902.78	438080.97	482751.72	477594.41	491552.03	514535.63	551009	518129.97	3.3
0	21183		531.1	1466475.5	530.6724	856877.94	761241.31	742352.06	525720.56	701110.94	817008.56	797001.38	789354.06	780436.63	856877.94	763195.5	3.3
0	21184		600.86	4122452.5	601.1082	3878200.25	3087236.75	3614190.25	2314469.25	3351096.75	3676492.75	3493458.25	3865315	3878200.25	3664282.25	3611880.75	3.0
0	21185		593.85	480830.97	230.1701	440250.59	336218.47	395434.94	317043.84	339790.31	383443.78	386862.59	363226.41	408561.44	388442.25	440250.59	3.3
0	21186		907.45	311491.13	130.1346	307902.66	266190.16	249870.78	209219.17	261906.81	293430.13	274374.38	307768.38	307902.66	302702.56	299745	3.0
0	21187		767.39	263858.16	230.1701	233799.53	192389.08	183940.92	163377.47	189507.78	215767.16	215602.86	193211.77	201696.84	230702.16	233799.53	3.3
0	21188		692.39	298891.78	129.1379	296196.91	288998.13	269622.47	202995.75	271151.66	280771.59	279536.72	296196.91	281392.25	273260.19	293535.53	3.2
0	21189		862.44	169178.19	230.1701	89144.43	77878.09	67063.06	75410.22	74704.41	89144.43	75056.99	71563.81	65749.84	77976.26	70774.98	3.2
0	21191		837.63	200237.58	230.1701	118244.55	77585.95	92737.34	75705.96	88869.02	101636.88	105088.7	104443.73	87705.56	98415.04	118244.55	3.2
0	21192		906.78	437227.94	905.9955	376542.75	344246.41	307779.38	239915.09	316890.69	336546.22	344469.47	375560.06	376542.75	331578.97	347261.03	3.0
0	21193		686.38	2601604.25	686.4573	1240368.75	1201696.38	1134445.75	768313.44	1064572.63	1193524.5	1173959.63	1240368.75	1186160.88	1194702.75	1238065.13	3.3
0	21194		799.1	689709.69	580.8555	374465.16	334847.84	334271	305226.22	313543.84	346234.53	342973.56	374465.16	336069.59	334219.09	347178.41	3.1
0	21195		639.92	213258.3	230.1701	197781.42	168515.05	177797.03	172721.33	166261.44	188160.28	174353.31	179713.89	172834.64	197781.42	194462.13	3.3
0	21197		442.77	620209.69	356.9107	291581.78	291581.78	246624.55	218503.11	244076.48	281774.06	266885.25	290936.72	275017.66	281045.16	267610.03	3.2
0	21198		716.73	352419.84	230.1702	300177	244824.83	300177	219908.39	230185.19	242001.23	255843.72	280943.5	242744.59	252386.89	287054.38	3.5
0	21199		725.89	1955833.5	230.17	1254400.88	1200192	1204185.38	1072866.5	1137320.25	1157920	1254400.88	1224642.13	1175986.75	1216246.25	1230581.88	3.3
0	21200		528.58	592276.38	128.1345	588891.88	585383.88	556032.63	400847.44	531179.5	588891.88	541524.44	561559.19	582221.88	580617.81	580016.88	3.4
0	21201		702.32	424186.84	616.8166	351364	285412.5	305043.38	312377.78	290101.09	322760.34	349738.47	337753.91	321512.56	340233.75	351364	3.1
0	21203		704.89	475888.63	127.1309	493202.25	186234.17	204883.94	493202.25	229597.2	201092	247176.61	227681.45	212173.02	177685.53	238001.92	3.8
0	21204		554.27	203539.88	131.1383	212079.58	123181.32	127492.36	141385.56	127934.91	139135.44	143991.27	145884.92	145375.22	136295.53	212079.58	3.2
0	21205		453.75	1557661.38	120.0809	307328.06	269128.84	280610.31	226126.33	288785.81	287381.63	279879.16	290272.31	294737.06	307328.06	295239.5	3.2
0	21206		583.05	1422564.13	303.1774	486853.03	486853.03	451548.78	438566.13	442800.63	454390.25	454183.97	459623.38	447395.53	454202.59	461341.53	3.3
0	21207		440.0	605154.75	248.1806	349144.78	326887.22	286445.94	263891.63	349144.78	348959.16	304837.81	331505.69	332487.06	304071.91	348001.94	3.0
0	21208		757.39	400849.34	592.2963	239570.34	210567.22	212888.52	185944.89	199115.19	232187.38	217291.27	225715.02	235694.67	208460.41	239570.34	3.1
0	21209		546.67	508456.31	130.1349	502029.34	472432.53	450608.47	391632.25	446192.31	454776.91	470052.13	476687.84	502029.34	487568.88	472302.56	3.2
0	21211		558.83	1044031.81	558.8323	619274.69	585701.63	569361.25	611968.25	558067	576534.81	592173.75	567472.75	584839.25	567494.69	619274.69	3.2
0	21212		471.26	367397.59	230.1701	316638.09	283733.84	249509.64	316638.09	266269.09	273249.13	274550.28	256124.27	243314.92	262228.53	283302.31	3.2
0	21214		504.06	6020758.5	110.0715	2305061.5	1775788	1822717.75	1290654.25	1707075.25	1972509.25	2010618.5	1869532.13	1903587.88	1830361.5	2305061.5	3.3
0	21215		552.65	464471.22	230.1702	368056.81	351769.06	327662.03	312382.72	353024.41	360590.09	350351.09	349628.44	345227.94	359284.19	368056.81	3.2
0	21216		544.67	673020.06	136.0757	121720.4	98919.56	97462.63	92775.18	109690.93	106028.89	103772.99	110555.48	107686.34	98263.38	121720.4	3.0
0	21217		415.8	4560546	416.2554	1690129.38	1567999.25	1554972.75	1158279.25	1463667.63	1617048.5	1570599.88	1690129.38	1689302.13	1685922	1645192.13	3.2
0	21218		663.63	458623.59	248.1807	441026.31	389180.94	425410.22	294712.53	377134.13	441026.31	408587.25	409404.53	391142.34	427287.16	429466.03	3.4
0	21219		554.06	569923.06	131.1382	588237.81	465940.5	487390.84	424375.53	453478.19	510872.72	526633.13	540368.81	540953.63	541517.06	588237.81	3.1
0	21220		594.1	455192.28	230.1702	424680.72	336074.78	380276.06	319966.63	318983.94	377929.09	382647.97	354327.91	400865.44	367371.41	424680.72	3.3
0	21221		514.29	682402.5	230.1702	643428.94	480679.38	508951.19	643428.94	492207.97	480547.94	504514.63	465069.28	495054.31	473456.69	505159.19	3.2
0	21222		730.37	156362.08	230.1702	141566.97	115340.44	123360.3	107088.91	117111.54	129578.44	133242.66	137478.11	132100.94	139217.3	141566.97	3.1
0	21223		632.88	785604.56	130.1349	781810.38	773510.94	714528.19	533545.13	682616	758053.06	715329.56	763100.06	774364.56	741520.38	781810.38	3.3
0	21225		443.03	381259.78	357.245	216296.23	191211.63	177606.91	143823.78	166837.16	203678.78	193261.95	199288.16	185124.03	205573.91	216296.23	3.3
0	21227		739.11	29458650	110.0715	9602082	9602082	8965693	6150985	8279168	9598408	9283420	8960690	7430895	9427104	9148779	3.6
0	21228		468.03	10495111	356.9107	1412658.88	1384528.38	1321026.88	985476.94	1249293.38	1362151.63	1310640.63	1236809.88	1410453.25	1307442	1412658.88	3.4
0	21229		698.06	2608591.5	230.17	2576647.25	2519759.5	2321893.5	1488469.25	1983423.5	2404711.5	1963259.63	2576647.25	2548934.25	2288135	2293821.5	3.3
0	21230		487.32	1456072.13	143.1178	314458.13	292642.25	282299.91	266587.88	280211.47	312547.16	311494.97	295348.88	302960.53	314458.13	312326.06	3.2
0	21231		537.28	854811.19	248.1806	195759.31	195759.31	167849.98	148333.63	167732.92	187633.14	184333.19	178434.89	169621.38	190928.56	186536.72	3.4
0	21233		577.64	431789.91	230.1701	410637.94	395848.81	377012.38	343723.72	340285.22	383883.72	389626.25	398788.47	369632.28	407396.41	410637.94	3.4
0	21234		644.35	937755	230.17	724092.25	708451.19	693201.94	635381.69	670845.81	708869.75	717249.19	724092.25	691822.63	677651.56	720453.19	3.2
0	21235		800.45	3270772.25	631.3973	1405919.13	1171992.88	1273112	984191.5	1193544.5	1349182.88	1323866	1312823.5	1405919.13	1314476.63	1403388.25	3.1
0	21236		688.72	473808.88	131.1382	489287.97	429438.19	429921.88	316612.59	390593.47	440177.16	422077.63	436507.19	443672.16	451939.22	489287.97	3.4
0	21238		434.93	8790285	175.1189	4252575.5	3292850.25	3420650.75	3129939.5	3084324	3620873	4252575.5	3761025.5	3845028.75	3674525.5	4044789	3.2
0	21239		597.35	1921989	597.3516	1759827.25	1670086.5	1677542.25	1648506.38	1644893.5	1692109.63	1658886	1736764.5	1759827.25	1638157.88	1673533.5	3.1
0	21240		517.04	635739.69	230.17	631299.19	595045.56	565300.94	383070.53	535727.19	602582.94	587330.94	597273.56	583704.5	614803.38	631299.19	3.4
0	21242		676	7200866	262.1507	2481224.25	2201476.5	2200654	1729887.63	2031084.63	2251734.75	2365036	2245781.75	2273064	2168371.25	2481224.25	3.3
0	21243		699.88	2972042.5	230.1699	2708971.75	2351708.75	2404705.25	1678264.13	2218780.75	2493807.75	2414606.75	2506110.75	2542208	2663231	2708971.75	3.3
0	21244		491.33	1000290.88	130.1349	1020595.31	898449.56	901847.5	683342.81	857674.13	975023.81	995284.06	983086.88	981582.63	1020595.31	992013.75	3.2
0	21245		566.58	363565.16	385.242	209965.09	202013.34	174385.28	160973.02	192334.59	204722.17	189622.5	190243.83	186379.55	169525.7	209965.09	3.2
0	21246		615.33	792026.5	230.17	575231.81	514304.72	559646.44	495036.41	525736.13	560232.44	575231.81	551331.31	556082.56	570423.69	573756.56	3.2
0	21247		673.02	1010617.19	230.1701	1031035.31	409932.56	456601.06	624356.06	477351.28	432173.44	488993.13	470621.38	420068.56	428785.91	1031035.31	4.0
0	21248		578.96	417742.19	230.17	309958.25	286653.31	269330.03	261816.86	282994.41	290053.59	306753.91	304477.34	299919.91	309958.25	298838.72	3.1
0	21250		808.97	856276.69	127.1309	909672.31	93077.6	194840.92	909672.31	425628	125751.49	256906.95	105437.2	106922.09	72048.7	106796.6	6.2
0	21251		979.99	120498.07	230.1701	115235.98	97841.2	100451.19	79762.49	103976.2	108347.93	105390.09	107260.97	99926.83	115235.98	109258.66	3.2
0	21252		523.79	3954479	136.0757	1326969	1226191.88	1177578.38	810485	1095095	1299983.38	1128865.25	1269939.5	1268603.38	1326969	1205158.63	3.3
0	21253		907.78	3192126.25	906.9987	1591563.25	1374001	1413153.63	954023.56	1354489.5	1533115.13	1466100.25	1509523.75	1539877.75	1503378.5	1591563.25	3.2
0	21254		640.34	1185257.88	639.9186	635031.25	575909.81	557176.69	483524.69	553863.81	588464.75	565039.38	619351.56	609082.94	569134.63	635031.25	3.1
0	21256		494.82	31526936	230.17	26724326	25071276	24041136	18125052	22086404	25112214	25331020	24081212	22794018	23309010	26724326	3.4
0	21257		446.87	460277.19	376.2756	248730.47	219429.92	218095.06	151312.3	222543.94	246594.47	232364.06	221000.91	248730.47	229173.81	218572.19	3.1
0	21258		456.52	12270068	120.0809	3016780.25	2862678.5	2943248	2173402.5	2683158	2779420.5	2787989	2823339.25	2999218.75	2949208.75	3016780.25	3.4
0	21259		608.99	2778873.5	230.17	2314367.5	2091219.13	2197815.25	1688286.88	2001921.88	2138589	2200051.75	2140620.5	2132953.75	2273276.25	2314367.5	3.4
0	21261		472.1	454116.44	471.7997	208157.56	141692.61	131180.69	208157.56	154797.58	148701.66	140500.88	131844.64	124647.63	121735.31	137672.91	3.2
0	21262		903.45	310165.97	255.1086	80140.48	56747.48	70317.57	73177.45	56284.33	59236.05	66664.7	52781.93	80140.48	53873.44	66071.73	3.0
0	21263		571.58	667734.75	136.0757	397748.28	332079.75	357083.06	381979.06	371816.03	351784.38	397748.28	360626.41	352050.66	374887.78	382242.38	3.1
0	21264		458.31	5324984	110.0715	3701591.25	3394005.5	3207199.75	2632982.5	3390073.5	3701591.25	3532805	3293925	3400160.25	3598587.25	3655146.5	3.3
0	21265		623.71	783761.88	230.17	757141	736507.38	683932.75	733447.13	657145.13	685510.5	734532.69	712179.69	693352.44	716866.13	757141	3.3
0	21266		886.01	733384.19	230.17	518265.66	511129.75	485093.94	466250.81	492232	486435.38	489252.44	518265.66	496063.81	472573.09	515660.28	3.2
0	21267		585.03	768600.63	230.17	714768.38	676485.69	649888.19	535115.38	649468.69	681519.56	671509.06	690939.38	707584.75	714768.38	688644.63	3.2
0	21268		777.07	578133.44	303.1774	217778.28	217778.28	188876.89	194171.81	174649.45	204900.08	205674.94	198224.16	198675.53	215522.88	216005.73	3.4
0	21270		588.37	3833402.5	588.3732	3801229.25	3530446	3263576.25	2611419	3222049	3744045	3693101.75	3306823.5	3534167.75	3548687.75	3801229.25	3.3
0	21271		851.11	162234.73	639.882	61680.71	32310.95	35375.6	61680.71	44228.84	37293.73	45146.13	43311.18	42146.11	34411.73	41376.19	3.0
0	21272		573.37	2908812.75	230.17	2642812	2315082.75	2390360.25	2157348.5	2385554.5	2405069.25	2335348	2642812	2495304.25	2290159.5	2343306.75	3.0
0	21273		608.35	2469765.75	230.17	2041112.63	1866523.25	1922383.38	1636836.13	1786427.63	1885044.38	1859110.88	2015097.75	1931211.25	1854988.13	2041112.63	3.2
0	21274		591.01	4000866.5	376.2755	1844009.38	1750606.88	1654971	1461541.88	1498073.88	1844009.38	1739008	1669177	1590466.63	1747571.25	1677799.13	3.4
0	21275		628.36	8442511	628.358	342584.09	332272.19	335997.06	244655.52	297916.81	332578.31	317818.84	338565.81	329149.09	324170.47	342584.09	3.3
0	21276		1046.58	1244913.75	230.1699	896934.63	873856.5	824574.44	455154.66	730889.94	824371.81	780546.94	896934.63	879740.56	813633.88	850935.56	3.3
0	21277		611.66	419216.41	127.1311	419657.75	327684.63	306697.56	419657.75	322775.09	321579.34	360151.13	311543.09	301227.22	293082.25	365738.81	3.1
0	21279		533.97	68661960	110.0715	10542658	8361591.5	9139719	7242615.5	8567719	9494009	9192664	8313006	9450239	9865670	10542658	3.4
0	21280		709.7	5958541.5	874.4192	1264934.63	1119010	1218029.38	1041229.94	1138055.13	1164509.88	1117018	1237845.63	1205148	1194418.75	1264934.63	3.2
0	21281		478.61	1449526.5	110.0715	426902.75	419684.47	426902.75	410592.88	359046.56	392048.69	416508.19	400377.03	378726.31	410523.5	414640.72	3.4
0	21282		445.77	1196198.63	505.3257	626148.25	552898.06	539636.5	366868.28	620022.13	626148.25	517079.28	429143.28	585981.88	494954.59	466034.88	3.4
0	21283		663.12	286759.34	128.134	285185.16	231584.84	229818.53	202594.31	248392.95	285185.16	275017.72	252468.52	234895.61	269457.28	264137.19	3.1
0	21284		634.35	479086.56	230.17	349013.47	288483.06	311311.59	274154.78	286170.34	332320.81	332724.78	341574.59	347319.66	346896.41	349013.47	3.0
0	21286		1119.55	248216.67	906.4178	99533.76	99533.76	81339.11	61145.13	85506	96399.41	88311.89	93508.41	89339.88	95464.33	96785.89	3.4
0	21287		766.4	406739.59	734.4047	314727.38	306017.34	291912.75	283553.13	273623.72	287451.5	288918.44	314727.38	280254.91	280911.81	297700.34	3.2
0	21288		572.53	12550822	573.368	1638721	1638721	1617584.38	1390392.25	1443921.5	1558261.5	1456905.25	1601684	1549158.25	1498329.5	1544487.88	3.3
0	21289		559.88	1301833.5	559.8759	1070541.5	914795.69	1010453.94	864785.69	857343.31	957233.25	944725.19	928401.88	1070541.5	898624.69	913184.06	3.1
0	21290		515.31	2011973.25	129.1376	2012395.88	2012395.88	1864571.5	1636469.63	1754118.5	1874476.5	1836701.25	1994203.13	1950937	1854806.5	1995492.13	3.2
0	21291		555.65	1981171	131.1382	2096031.5	636405.19	623471.69	683171.5	628074.56	675344.63	753697.81	808416.56	655737	579570.5	2096031.5	4.1
0	21292		469.77	2028717.5	110.0715	560456.44	528362.06	488494.34	385608.84	514111.94	531978.81	521702.34	533187.75	510887.06	450640.88	560456.44	3.2
0	21294		497.96	973855.25	447.3128	506738.09	497475.66	443959.88	428551.78	414298.47	448923.13	491263.88	475078.56	486588.94	444404.78	506738.09	3.2
0	21295		692.72	436077.75	129.1378	444865.16	408601.13	397078.38	279328.97	388945.88	421646.22	416665.72	430459.19	423493.69	431894.5	444865.16	3.3
0	21296		403.24	7569026	120.0809	1676953.5	1654086.13	1567733.63	1512538.25	1522655.38	1676953.5	1602277.13	1676347.88	1651247.88	1589206.13	1650946.63	3.1
0	21297		539.69	2178727.25	110.0715	776720.81	727241.13	689143.88	728389.69	712668.44	679467.56	726420.38	698337.44	675946.5	654218.88	776720.81	3.2
0	21298		736.38	334301.5	230.1701	326900.63	311355.97	283745.63	260190.52	316113.16	303011.5	323306.59	321209.78	301199.56	294733.03	326900.63	3.1
0	21300		671.35	761847.19	248.1806	206966.64	206966.64	175399.77	186956.39	182266.27	200602.67	188595.66	204792.41	179032.61	202029.81	190694.91	3.2
0	21301		1067	579533.5	345.1969	143720.19	120273.5	117920.87	123758.77	128510.17	124337.7	131773.16	130843.9	129080.43	128835.38	143720.19	3.1
0	21302		628.86	1626128.5	130.1349	1620720.88	1412093.38	1547860.25	1151884.88	1427237	1503683.63	1516261.63	1596035.75	1600868.13	1542323.88	1620720.88	3.2
0	21303		684.33	616331.06	110.0716	268485.25	211036.45	212128.55	160061.19	207293.66	248930	228266.19	226675.63	227052.06	219033.98	268485.25	3.2
0	21304		898.43	926491.63	906.4182	530962.13	528788.81	467398.78	404565.5	439698.13	526005.38	484433	528187.44	502920.41	530962.13	507110.5	3.3
0	21305		550.29	353189.66	248.1807	240476.17	218750.17	207026.39	157991.78	186818.69	240476.17	211384.69	206164.58	200030.23	225522.61	219449.16	3.5
0	21306		1067.5	851170.63	345.197	189078.98	159298.69	177049.67	164068.84	170202.2	181952.88	168843.45	175197.64	182785.23	177370.8	189078.98	3.1
0	21308		827.94	446030.09	827.4347	404235.88	373423.16	377152.81	302833.78	359719.03	366115.34	384323.13	394202.22	404235.88	384097.63	403181.63	3.2
0	21309		635.02	469313.31	230.17	324348.59	271432.72	266650.41	255691.13	253470.25	273491.78	320833.94	287728.75	285198.09	324348.59	310835.63	3.3
0	21310		419.94	16098959	120.0809	10839246	8412365	10220226	7285457.5	9096512	10110493	10147502	10449148	10332301	9431994	10839246	3.1
0	21311		629.41	3120347.25	629.4128	2500609.5	1985061.5	2382051.5	1824547.38	2246304.25	2320332.25	2500609.5	2373237.5	2401417	2384942.25	2449995.25	3.1
0	21312		581.81	3384547	322.187	748463.44	695312.88	701104.25	660959.31	672342.75	687959.25	723097.75	689341.5	733799.06	700402.88	748463.44	3.2
0	21313		560.82	1596542.13	559.8758	1443709.25	1399830.25	1337320	1196217	1239360	1379119.5	1356155.13	1443709.25	1414479.38	1381219.88	1429873.63	3.2
0	21314		484.26	5042656	120.0809	2702112.75	2167935.25	2108020.5	1685249.13	2298556.75	2328190.25	2477669.75	2320344.5	2337340.25	2497106	2702112.75	3.2
0	21315		615.13	1610392.38	110.0715	672406.88	579611.38	588457.75	484714.53	563524.69	586415.56	645126.5	638344.38	655239.13	672406.88	634403.63	3.1
0	21316		711.33	887853.81	175.1188	453919.06	355804.22	370037.59	388640.53	385128.66	415989.5	433127.09	412869.06	408063.75	449408.53	453919.06	3.1
0	21317		763.04	637250.31	230.1699	498038.72	373202.44	424176.59	331100.06	393711.84	457357.16	498038.72	468327.66	459356.13	454384.34	473558.06	3.1
0	21319		426.95	1246243.75	130.1349	1282438.38	1122716.38	1124689	756253.69	1036878.44	1190339.25	1128527.75	1110784	1227210.38	1067584.25	1282438.38	3.3
0	21320		449.75	514081.97	230.17	184853.22	177498.86	161170.92	158398	179366.28	182313.34	180588.52	162432.67	164627.36	178794.52	184853.22	3.3
0	21322		786.05	3621936.75	409.23	1149101.38	1048964	1035359.25	795290.38	990675.06	1113072.5	1133892.5	1089266.25	1149101.38	1095760.88	1132086.13	3.2
0	21323		687.85	2251086	304.1612	828352	764751.5	753260.06	627921.81	712327.38	797146.25	811625.81	779943.38	759198.56	801557.44	828352	3.3
0	21324		654.35	2183458.25	230.17	1947175.13	1812800	1781763.38	1546266.25	1677193.13	1823031.25	1947175.13	1828153.5	1772005.13	1873375.25	1910313.38	3.3
0	21325		702.38	1806903	616.8165	1445810.63	1382486.38	1326676.5	904002.81	1268340.38	1396135.88	1290530.88	1415335.13	1445810.63	1411045.88	1367381.75	3.2
0	21326		520.29	665815.56	230.17	401330.81	363078.75	345415.53	307633.59	338755.31	350086.78	370816.16	401330.81	344034.59	361923.63	382479.41	3.2
0	21327		898.81	828283.69	906.4178	610376.44	610376.44	530588.19	417214.19	530158.19	553746.88	550246.5	543659.25	530719.56	578607.94	571599.19	3.5
0	21328		805.05	340918.59	466.2517	79167.4	66498.49	63434.39	79167.4	71322.13	65042.04	68418.33	57319.2	73148.13	74329.84	77421.01	3.2
0	21330		681.39	29473378	131.1381	30421640	25822952	25828482	13199659	24326650	28011354	28051666	26413660	27948460	27146026	30421640	3.6
0	21331		463.31	1337747.38	408.2727	1095080.25	1095080.25	1015061.94	893926.94	982499.88	1031859.31	1017162	1077255.88	1060549	994398.19	1048139.75	3.2
0	21332		814.44	531222.94	242.1133	192692.77	181280.63	180869.39	170112.98	177007.64	192692.77	188352.19	178832.11	173656.09	186891.84	188177.59	3.3
0	21333		705.05	578822.19	704.4044	461799.56	383859	368274.59	461799.56	384118.41	386228.63	440155.63	419411.13	408636.63	407169.22	428486.88	2.9
0	21334		517.96	656058.38	230.17	489466.72	441364.78	417317.88	331807.22	403141.19	460161.94	443324.84	440027.09	444902.06	479783.81	489466.72	3.4
0	21336		504.54	754045.13	504.3343	505898.91	408108.97	453352.38	360562.09	422134.75	445448.34	444720.69	453797.5	439700.97	475789.72	505898.91	3.3
0	21337		482	2054005.13	130.1411	2123989.75	1806153.75	1540475.88	1267011	1491726	1623644.63	1535747	1632529	1589338.75	2123989.75	1592851.75	3.6
0	21338		496.97	1179744.13	230.1701	1095096.63	988048.75	867973.5	925023.19	845338.19	941243.75	1001200	1005145.5	1017119.19	1000362.69	1095096.63	3.1
0	21339		566.36	617820.38	230.1701	480972.38	409190.19	390953.63	480972.38	423907.13	398991.19	388858.28	402614.66	369516.44	377240	376715.97	3.1
0	21340		632.34	366636.63	230.1701	348540.63	282798.5	287590.56	332625.41	322231.94	307944.28	344510.34	303708.94	278652.19	278042.22	348540.63	3.0
0	21341		674.11	5984946.5	230.17	2458868	2342080.25	2118120.5	1596495.63	1968727.25	2276301.75	2253930.25	2211056	2135863.25	2188658	2458868	3.4
0	21342		652.84	2128298.25	652.8446	1218506.88	1116499.13	1096506.13	1032161.31	1032565.94	1153900.5	1124941.63	1105045.88	1157906.63	1141888.63	1218506.88	3.2
0	21343		770.14	518052.5	656.3928	211089.36	185858.58	184640.66	160235.97	179846.06	188908.48	186351.22	185590.7	211089.36	195499.25	189871.61	3.1
0	21345		747.04	756655.19	693.3073	260895.22	236249.53	242945.52	200578.09	236789.17	237347.31	245966.44	253002.72	225769.64	260895.22	254681.48	3.3
0	21346		507.33	726848.88	131.1382	749537.69	697989.88	655941.13	526345.5	647250.81	703376.13	706108.31	709314.88	705903.44	720084.81	749537.69	3.3
0	21347		547.65	633300.63	110.0716	345187.84	314418.38	333645.5	278282.97	287318.72	327262.69	332854.19	326318.41	332181.88	327634.41	345187.84	3.3
0	21348		796.38	415590.47	409.2305	122163.6	99463.33	98662.03	122163.6	99108.14	109093.69	107503.77	102664.29	85978.85	100347.48	94315.54	3.1
0	21349		743.36	619746.69	110.0716	251219.36	231972.11	233955.39	239536.41	236515.31	251219.36	243416.34	219489.03	220107.66	236335.98	234152.22	3.2
0	21350		856.16	239303.72	230.1701	199295.73	171315.09	174788.05	172898.34	170643.25	199295.73	190584.72	184108.66	185246.56	197313.5	196313.8	3.1
0	21352		970.8	339356.78	126.055	73826.41	59617.29	67106.11	56014.71	60259.29	70883.73	69163.61	67368.46	73826.41	69177.4	69885.31	3.1
0	21353		633.84	789188.19	230.17	625397.94	579551.75	526002.88	450591.53	541704.38	555054.38	545817.88	559542.44	540269.38	552377.63	625397.94	3.4
0	21354		439.27	6806763.5	473.3282	1433024.13	1112910.13	1305963.88	1085789.63	1199883.25	1433024.13	1299874.25	1293768.25	1186669	1242329.75	1374977.25	3.2
0	21355		757.88	721736.75	230.17	664181.44	562889.19	612854.19	484020.09	562066.75	626375.63	639113.44	611872.94	615763.44	596102.81	664181.44	3.2
0	21356		906.49	2627531.5	230.1698	2552197.25	2181355	2213891.75	1483374.38	1988828.25	2415308	2339616	2256743.5	2383079.5	2322168.5	2552197.25	3.3
0	21357		828.48	2118021.25	230.1699	1293303.13	1272798.63	1233079.25	1149245.13	1240737.5	1248874.63	1233091.88	1291938.38	1293303.13	1237669.25	1275691.75	3.1
0	21359		511.54	3044602.5	136.0756	1429359.25	1329878.88	1198034.38	796974.25	1184013.13	1331263.63	1377552.38	1315617.13	1296149.75	1372151.25	1429359.25	3.4
0	21360		870.12	841611.06	870.1233	286412.97	264381.03	257206.86	225312.41	255502.11	253270.33	264483.97	277678	282156.03	286412.97	277448.72	3.2
0	21361		737	3156481.75	433.2965	954053.31	910709.75	925860.19	716757.19	878838.38	917363.81	874474.25	954053.31	916870.81	901623.88	952472.44	3.3
0	21362		677.86	601299.94	230.17	375224.94	329184.19	318965.25	312452.22	295770.13	339473.16	344819.5	343079	349597.69	340981.91	375224.94	3.2
0	21363		1178.58	624798.56	503.3022	307730.44	268468.88	277708.19	254348.23	281679.44	287641.5	269706.72	287756.22	307730.44	266692.47	289396.03	3.0
0	21366		414.74	1632340.38	376.2755	422064.94	386631.22	393408.84	340817.66	410760.5	400121.16	422064.94	408939.97	380710.63	393021.97	415339.69	3.2
0	21367		771.95	1216293.25	248.1804	378938.09	365733.44	356550.56	297613.16	332418.63	349327.31	345426.84	364261.91	355821.25	357375.81	378938.09	3.3
0	21368		680.59	12843918	583.8261	3831127.5	3502541.5	3615200.75	1707189.5	3171681.25	3712114.75	3278447.75	3686798	3677747.75	3831127.5	3726070.75	3.6
0	21369		585.7	21669560	473.3282	4525333	3973520	4453317.5	3445292	4298283.5	4342530.5	4269159	4242223.5	4420865	4525333	4403332	3.2
0	21370		797.05	913059.88	409.2303	164318.06	138166.22	143494.8	164318.06	145652.89	146588.95	154121.42	149652.67	142754.64	152299.33	144834.59	3.0
0	21371		713.39	1803063.38	230.17	846688.06	759316.31	750848.31	784423	802655.13	820908.75	824714.44	795908.44	836080.19	758788.81	846688.06	3.0
0	21372		510.56	904675.31	230.1699	846081.44	807672.75	809279.06	542286.38	716956.13	830480.31	801704.56	846081.44	838973.81	816965	844426.88	3.3
0	21373		799.68	129231.08	230.1701	114862.05	103531.33	92040.23	98026.7	101656.83	99469.51	102685.45	97554.44	104005.84	114862.05	112969.56	3.3
0	21374		777.36	570478.94	843.4149	214009.2	196385.55	197734.7	175927.25	183405.19	208676.06	208030.19	200601.45	203490.08	204852.75	214009.2	3.2
0	21375		1105.5	840635.5	230.1698	670336.31	630173.44	628821.56	488948.56	626207.81	649393.56	634308.06	670336.31	634361.81	651395.31	658764.06	3.2
0	21377		907.11	2553849.75	906.4966	959596.75	763822.38	837950.56	570813.19	740265.25	878340.5	864108.81	858914.5	883314.44	913316.06	959596.75	3.3
0	21378		716.34	1002096.31	136.0757	283958.28	253807.5	266941.34	273925.22	259434.58	254717.89	281668.81	283424.56	273435.5	259172.63	283958.28	3.0
0	21379		1178.07	889560.13	1177.6882	319660.91	312936.72	316630	284111.69	282886.47	307124.72	307411.41	311617.41	319660.91	317846.97	305378.34	3.2
0	21380		528.3	1032434.75	136.0756	584146.06	531986.19	520137.25	309955.25	550946.5	584104.25	584146.06	564775.31	581877.38	577997.69	582077.19	3.3
0	21381		849.43	968064.94	127.131	1018633.94	216824.53	288315.53	1018633.94	424379.84	220484.2	338513.91	255878.77	213922.61	176890.98	239029.91	4.9
0	21382		600.0	946867.88	110.0716	550097.06	227930.06	228575.2	310390.44	266385.78	278469.31	312933.03	298345.59	267840.03	247856.56	550097.06	3.3
0	21383		647.85	777111	230.17	487330.09	453367.41	401590.56	384471.88	404414.81	416477.09	436215.53	466454.66	417947.16	450058.88	487330.09	3.3
0	21384		867.45	1384982.5	230.1699	869429.56	869429.56	816109.13	540952	759421.63	837242.31	713905.19	854106.88	821683.75	802404.94	782212.19	3.3
0	21386		791.38	563889.25	409.2303	113104.88	100020.16	98614.21	102184.76	107244.5	113104.88	99692.65	101217.62	105287.39	96645.34	106724.65	3.0
0	21387		877.04	727248.63	877.0396	433385.16	392066.06	408099.41	319771.28	394248	430973.91	433385.16	423004.88	423958.38	429694.03	415938.84	3.1
0	21388		644.87	1682195.75	230.1699	1272673.13	1233374.75	1171862.5	934230.75	1115208.25	1219246.25	1181278.63	1246441	1239551.63	1272673.13	1240091.25	3.3
0	21389		466.52	568122.06	230.17	222441.63	171382.22	156156.67	124969.3	206357	222441.63	175375.75	172272.16	195882.61	147288.73	173587.86	2.9
0	21391		725.89	6694118.5	230.17	3454745.5	3454745.5	3229758.75	2601819.5	2877315.25	3356391	3321354.75	3179278	3294557.25	3307952.5	3429390.5	3.4
0	21392		708.39	761513.31	130.1349	757890	702729.13	670737.25	386430.34	621900.94	753275.88	688958.81	724424.38	750853.44	696499.06	757890	3.4
0	21393		593.54	769299.44	503.3027	246815.58	212763.17	218789.7	189440.31	209325.59	222384.27	246815.58	232988.13	217430.25	230401.22	243057.56	3.2
0	21395		453.5	4123266.75	120.0809	772646.81	674849.94	592950.13	500500.84	584726.75	662971.31	680089.75	625188.19	654262.88	628828.56	772646.81	3.4
0	21396		472.23	1183441.88	473.3283	378710.09	289376.91	339503.41	280198.41	313492.5	326117.63	335526.31	355457.84	378710.09	350009.41	368352.5	3.0
0	21397		589.79	32218934	589.3477	4835790.5	4231163.5	4469935.5	3337371.5	4024008.25	4487889	4686089.5	4496947.5	4570513.5	4401123.5	4835790.5	3.3
0	21398		513.31	9427158	603.2933	1683931.75	1571902.13	1461682.25	1210659.88	1505020.5	1598420.75	1623267.75	1523789.38	1446016.63	1551233.75	1683931.75	3.3
0	21399		606.34	25573402	605.3657	6987993.5	4611279.5	4834878	4714082	5133838.5	5549277.5	6315868.5	6059555	6353171.5	6111511	6987993.5	2.8
0	21400		716.0	1837296.38	136.0756	325583.03	306960.63	307037.19	231930.05	284836.69	317881.81	317625.56	325583.03	306702.25	297786.47	320912.03	3.2
0	21401		472.54	4953194	473.3281	788747.94	720324.63	781315.63	637946.38	708442.63	773225.38	776884.69	784084.94	784742.81	776622.63	788747.94	3.2
0	21402		533.31	563123.56	110.0716	228442.61	196591.48	204191.06	170434.14	192646.56	224046.05	228442.61	199310.28	213467.67	207839.84	209659.88	3.2
0	21403		566.29	671931.63	230.1701	477252.56	400600.97	380207.47	477252.56	396281.44	364585.34	398055.47	401168.38	363096.84	392489.94	428189.5	3.2
0	21404		848.93	1144046.25	127.1311	1190783.88	399670.84	467548.94	1190783.88	615315.5	389962.13	547121.19	464647.91	393109.41	350173.91	401264.94	4.0
0	21406		1008.99	387113.16	230.17	141402.22	131038.33	131433.39	141402.22	134598.17	134460.81	137231.84	136111.77	134582.75	131784.13	130176.13	3.0
0	21407		808.45	405487.84	230.1701	328644.03	248026.81	297313.34	284542.88	294957.56	288075.69	298595.69	295594.13	328644.03	294531.34	319374.56	2.9
0	21408		848.43	993233.25	127.1311	1024640.94	446434.34	525502.75	1024640.94	628273.94	437473.94	541415.5	476700.69	464165.28	413130.91	462269.91	3.7
0	21409		620.35	497894.28	130.1411	515161.31	275582.97	377765	276051.47	336237.22	348209.97	361257.22	389154.84	386753.78	515161.31	394662.34	3.3
0	21411		552.32	47735260	376.2754	18021836	15897645	15803359	14343896	16144916	15103129	16991100	17900774	16631812	16328052	18021836	3.1
0	21412		490.53	380207.66	110.0715	200860.91	169853.38	158813.47	159358.77	175372.77	172187.55	172056.7	199562.34	183033.94	200860.91	188644.13	3.0
0	21413		742.0	553644.38	433.2971	398693.38	358284.38	372366.41	296117.88	345405.53	364179.72	373165.97	398146.16	367229.06	362250.94	398693.38	3.2
0	21414		669.02	623773.13	669.3629	371408.44	322164.38	306258.75	270845.56	350678.5	308531	367637.78	337751.66	330293.13	324970.31	371408.44	3.1
0	21415		678.11	374759.47	230.1702	204397.45	169841.16	168752.13	177252.56	163335.59	183826.22	199357.5	186591.25	190787.86	189958.59	204397.45	3.1
0	21416		763.38	309428.84	230.17	264721.78	204212.83	223366.69	219521.73	217438.56	238269.94	264721.78	248003.63	234320.08	255946.2	251776.88	3.1
0	21417		729.61	194682.81	230.1701	165757.13	144979.84	142122.03	165757.13	137581.3	151848.53	151620.39	143933.61	143170.09	146506.56	160436.69	3.2
0	21418		812.35	919201.69	506.7895	117280.49	88632.85	91552.88	117280.49	85907.13	82641.05	90187.27	98855.26	84187.95	88427.95	92400.58	3.1
0	21420		697.72	60516468	230.17	57127572	51052248	50726248	27044438	48786088	56824492	55452572	53551420	57127572	54984436	56461804	3.4
0	21421		487.32	3022109.25	143.1178	584928.31	553811.5	548464.44	480338.38	532967.06	556642.06	566315.81	558913.94	552438.38	546003.06	584928.31	3.2
0	21423		604.36	41212976	230.1699	38640596	30256638	31163178	25732498	28316050	31397376	35117224	34429532	34003168	34617296	38640596	3.2
0	21424		650.73	5676785	129.1377	5745792	5653450.5	5745792	4073299.5	5081332.5	5363961.5	4904080.5	5623008.5	5535782	5218386.5	5381135	3.4
0	21425		430.25	3107328.25	136.0756	536480.81	516471.09	495968.44	345749.19	441759.88	536480.81	486641	488836.16	514307.31	512563.84	519619.72	3.4
0	21426		503.86	1100691.88	504.3339	422489.19	346316.88	393914.75	349264.69	353031.5	385133.41	391591.41	395640.16	406624.25	422489.19	420715.28	3.2
0	21427		637.32	778586.63	110.0715	209053.09	195370.47	161231.53	153333.3	184977.95	202475.14	181976.2	179576.78	137373.02	209053.09	171078.06	3.5
0	21428		400.26	472317.72	175.1189	185182.48	177059.97	152739.5	185182.48	171809.91	158455.48	168024.41	160391.69	171626.56	174288.02	177445.11	3.2
0	21429		1074.0	585416.56	230.17	207541.42	200317.59	183488.03	111317.41	183357.11	194160.75	207541.42	189839.72	178673.66	198236	200433.13	3.5
0	21430		775.45	1351107.25	230.1699	767203.13	766548.13	746742.06	611671.19	690964.38	767203.13	698416.38	763554.19	726452.94	728134.25	733237.81	3.3
0	21432		675.67	1549728.63	230.17	1060367.88	911229.69	917110.88	744350.19	904135	958836.94	976634.06	941838.31	979628.19	1021850.13	1060367.88	3.3
0	21433		626.67	334199.69	230.1701	235832.55	226475.53	188372.91	235832.55	223868.91	215343.84	230616.77	219028.58	219811.91	202005.52	217137.53	2.9
0	21434		766.75	4871500	734.4045	3796645.75	3720621.75	3636123.75	2877127.25	3270692.5	3575302.25	3529400.75	3796645.75	3729945.75	3538902.25	3727054.5	3.3
0	21435		488.55	1865576.13	489.3594	703986.19	640226	642346.25	588138.5	625518.44	677285.31	633286.25	686594.13	678388.69	665950.56	703986.19	3.1
0	21436		694.47	1481812.88	127.131	1490049.25	1079443.13	1110883.5	1490049.25	1133255.38	1097650.25	1197020.25	1165227.5	1108468.13	1128553.13	1294794.63	3.2
0	21437		427.97	440033.13	376.2756	228834.59	209621.06	206335.89	168496.38	191932.48	228440.34	206815.77	216756.56	228834.59	210825.64	219202.97	3.1
0	21438		538.8	2059689.88	275.0804	1374040.88	852874.44	775681.56	640903.69	1374040.88	1223943.88	881662.06	718099.06	993328.44	745627.44	732114.56	3.2
0	21439		597.79	2034754.13	597.3516	651900.63	579561.25	561039	499987.5	557475.31	586982.81	622451.44	590998.25	613689.94	622206.69	651900.63	3.2
0	21440		791.72	746089.5	409.2303	153223	140818.66	138489.22	153223	147420.63	130423.88	151360.22	140071.73	130951.77	139619.66	147431.28	3.2
0	21441		436.28	999893.38	436.2813	474721.97	463359.63	458698	429929.88	458777.06	444514.31	449322.69	472034.97	451711.16	443791.47	474721.97	3.2
0	21443		578.64	134693296	136.0756	14608623	14608623	13770572	7572283	11714429	13708054	12675586	13318540	14127604	13797265	14273496	3.6
0	21444		732.88	688860.81	732.8853	550056.94	519389.03	482629.22	462752.03	489737.09	521989.94	514701.72	514300.13	499049.91	516480.47	550056.94	3.2
0	21446		523.54	18685654	136.0756	4957261	3933684.75	4000154.5	2166892.5	3817368.75	4428393	4548566	4444505.5	4346007	4614629.5	4957261	3.4
0	21447		494.82	5540013	230.1699	4840556.5	4234514	3968168	3027660.75	3687338.5	4398599	4512789	4265822.5	4379392.5	4492109	4840556.5	3.3
0	21448		517.3	1760360.75	376.2754	1009851.56	976456.25	868212.56	742944.38	850394.88	913643.06	937763.25	1004396.06	947670	1009851.56	1004401.63	3.3
0	21449		976.09	844476.88	975.5851	544334.5	529116.13	506046.91	384289.47	485746	522388.34	506088.06	526500.94	544334.5	501807.72	529031.06	3.2
0	21450		529.29	543159.31	230.1701	526342.38	433789.38	438508.66	313753.16	462847.69	462500.88	478474.75	478773.94	468911.53	469885.84	526342.38	3.2
0	21451		508.3	1143434.63	175.1188	1093948.5	887368.88	945222.69	878040.88	1013899.19	975889.38	1019869.69	1023042.38	989975.13	978972.5	1093948.5	3.0
0	21452		425.92	2633897.5	110.0715	636348.13	629925.75	572420.25	472110.59	515360.34	614104.75	569217.75	616767.19	573016.81	636348.13	616621.25	3.4
0	21453		646.66	1852700.38	645.8713	1040979.56	825703.44	819957.56	828810.75	869921.13	920662.63	946371.06	944135.81	991099.81	990628.94	1040979.56	3.0
0	21454		744.67	466628.5	230.1701	463577.22	393352.41	398218.47	322184.59	380910.91	426748.59	416538.44	403735.28	422704.47	423991.25	463577.22	3.3
0	21455		874.44	1174338.38	230.17	808434.56	808434.56	746990.38	477394	694324.25	741677.06	673850.63	775892.19	764028.75	741973.69	722083.94	3.4
0	21457		456.52	6497120.5	248.1805	2622419.25	2505259.25	2012944	1561570.88	2195055.75	2622419.25	2310194.5	2164888	1826485.63	2399473	2095794.75	3.6
0	21458		730.64	894859.25	230.17	551891.38	479955.84	510693.53	419376.34	444154.69	486539.56	492324.22	551891.38	499570.03	479993.84	523944	3.2
0	21459		621.0	2279348.75	230.1699	2029944.63	1232165.38	1310851.38	1076454.75	1192946.13	1358077.38	1349632.5	1407196.5	1420348.13	2029944.63	1385060.38	3.4
0	21460		672.99	1602712.88	642.3658	315013.16	281173.19	295936.25	239550.78	244262.3	283890.5	296180.41	291749.81	309990.63	275205.28	315013.16	3.2
0	21461		772.9	1415746.88	230.1699	1389821.75	1287462.25	1259329.38	1181780.75	1077036.63	1167010.13	1215765.88	1389821.75	1208812.75	1254461.25	1238565.75	3.2
0	21462		422.28	576695.63	175.1189	390779.69	340989.09	334563.88	287776.97	348499.03	358545.47	376762.59	390779.69	356930.47	368757.91	374390.44	3.0
0	21463		575.32	9073972	574.3707	2211785.5	1665437.25	1675909.63	1701304.75	1846929.88	1880255.5	2060518.88	1962237.38	2116102.5	2059353.88	2211785.5	2.9
0	21464		663.86	780831.94	230.1701	416989.97	320462.91	351263.91	344835.13	277860.19	285602.41	321047.13	416989.97	376444.09	368262.03	368590.19	3.1
0	21465		616.35	3275880	136.0756	1496124.88	330837.5	418316.09	1496124.88	662042.38	350197.5	517076.22	359142.94	335185.22	290859.03	344935.38	4.8
0	21466		447.96	1002077.5	376.2757	346253.03	313868.59	306810.06	242406.23	288353.88	320900	288493.81	331519.84	346253.03	324407.16	316054	3.1
0	21468		585.03	36321724	473.3282	7987579.5	7447496.5	7794711.5	5460163.5	7212382.5	7642055	7531876	7629430.5	7298284	7516167.5	7987579.5	3.4
0	21469		573.37	17129288	573.3679	14221043	12401739	13409100	10137551	12102623	14058566	14207605	12873334	12877866	13902343	14221043	3.4
0	21470		583.63	9855771	136.0756	1969492.75	1601310	1506338.63	1032276	1444121.25	1559045.5	1582356.38	1671595.5	1619511.75	1969492.75	1472136.5	3.3
0	21471		886.01	1018789.06	230.1699	751108.44	667548.81	698232.81	552385.44	661798.38	693077.5	707237.25	716629.44	675984.56	705168.19	751108.44	3.3
0	21472		468.27	664415.44	110.0715	411768.66	390474.38	367462.91	270404.22	374236.41	411768.66	381213.53	403411.03	362280.81	392726.53	372180.03	3.2
0	21473		1046.08	1085400.88	1046.0781	735103.31	601233.13	638871.06	293169.28	534926.81	686658.38	674945.81	619946.25	658502.56	705638.06	735103.31	3.8
0	21474		688.86	616550.63	130.1411	643079.06	360837.41	341362.94	335076.69	353536.13	370136.34	376378	370112.66	369173.41	643079.06	397694.47	3.6
0	21475		500.28	1399732.63	120.0809	279427.34	249144.48	240203.14	245937.5	220767.66	236422.86	247440.77	262158	252310.48	261156.2	279427.34	3.2
0	21476		700.01	1353613.13	131.138	1396130.25	937570.13	968009.94	667160.44	991502	1178422.75	1200662.25	1178293.63	1308300.25	1288430	1396130.25	3.0
0	21478		883.44	537925.06	130.1349	531771.13	521091.91	468743.19	319387.09	455344.94	474294.25	472804.56	513306.78	531771.13	490755.38	517957.97	3.3
0	21479		856.42	389340.94	127.1311	390660.81	289164.22	319846.81	390660.81	343186.72	316089.97	370326.91	347959.06	328143.97	332635.56	320972.56	2.9
0	21480		585.96	29823260	473.3282	7177940.5	6135527	6127665	4962307.5	5948403.5	6761190.5	7095682	6663024.5	7177940.5	6793439	7172512	3.1
0	21481		669.86	1185818.63	230.17	1170583.5	1098532.75	1020835.31	816337.75	953010.38	1096004.75	1026240	1065604.38	1056177.13	1109359.5	1170583.5	3.4
0	21482		403.83	1175122	230.17	286767.63	219433.2	224061.88	200107.63	213660.78	248744.67	249540.53	227164.97	234540.25	247472.73	286767.63	3.3
0	21483		591.34	1270088	376.2755	749156.94	544620.88	612405.31	572606.38	657315.13	713416.19	700417.94	683054.44	683514.31	722705.5	749156.94	3.0
0	21484		548.12	607603.94	248.1806	232649.47	207180.56	219417.98	169344.08	215832.08	208690.75	228976.2	226477.36	215247.02	232649.47	214615.34	3.2
0	21486		914.45	915218.5	262.1507	226195.28	219673.44	218706.02	189025.95	192861.3	213481.86	209319.45	217650.03	215229.14	226195.28	220347.48	3.4
0	21487		441.26	644701.13	230.17	205999.19	187178	184809.55	158173.8	186501.45	203704.67	205999.19	189582.33	187683.95	195454.88	200537.3	3.2
0	21488		468.07	924904.88	110.0715	529008.06	514982.78	497223.72	338904.16	470841.56	529008.06	476312.34	522992.09	443467.22	526353.19	494929.84	3.5
0	21489		451.91	1357898.13	120.0809	177755.78	147270.36	134485.81	120659.08	177755.78	172432.89	156024.06	157169.58	171391.53	151458.16	140576.69	2.7
0	21490		792.93	879769.94	230.17	559134.25	452407.34	467246.03	419206.75	496855.47	504984	503573.59	488785.88	511893.88	485299.09	559134.25	3.1
0	21491		599.01	554243.69	230.17	525889.69	448023.56	444323.47	525889.69	461035.16	463671.44	463043.03	465805.25	469378.09	490299	442227.19	3.0
0	21493		818.41	224996.72	409.2302	113239.67	107405.43	109799.62	88577.46	95904.66	109950.62	113239.67	109051.63	112006.02	110544	111359.18	3.3
0	21494		708.68	364484.19	274.0919	365289.59	313855.91	316000.16	202990.67	291497.44	342868.25	334499.06	330844.44	334144.47	343938.91	365289.59	3.3
0	21495		584.31	15725085	473.3282	5131026	4382073.5	4188553.25	2983800	4060729.25	4698500.5	4397815.5	4302972.5	4308573	5131026	4622978	3.5
0	21496		629.57	1373355	248.1804	715892.25	570341.25	654858.38	509555.22	570654.5	600747.94	634019.81	650829.5	657223.5	635665.94	715892.25	3.3
0	21497		655.4	571725.5	230.17	494304.44	446035.78	438264.38	414024.53	420672.13	442051.84	447247.88	479290.53	494304.44	440237.66	452765.84	3.0
0	21498		914.12	1377713.88	262.1506	287023.78	274056.38	255299.19	216035.44	235622.03	270472.91	278477.63	287023.78	256540.02	265079.84	273157.84	3.2
0	21499		708.35	360316.38	131.1382	371586.03	309490.88	313335.66	216331.64	282057.19	334228.38	334135.03	343999.28	349400.97	348899.78	371586.03	3.2
0	21500		878.44	659784.81	230.17	544821.06	512540.75	499188.19	355630.5	458135.47	532263.88	517865.5	537382	544821.06	530462.19	544542.13	3.2
